# XDI/1.0 BlueSky/1.13.0a3 BMM/2024-2.0-py310-tiled
# Beamline.name: BMM (06BM) -- Beamline for Materials Measurement (NIST)
# Beamline.collimation: paraboloid mirror, 5 nm Rh on 30 nm Pt
# Beamline.xray_source: NSLS-II three-pole wiggler
# Beamline.focusing: not in use
# Beamline.harmonic_rejection: flat mirror, Pt stripe, pitch = 7.0 mrad relative to beam
# Beamline.software: Bluesky 1.13.0a4, Ophyd 1.9.0, DataBroker 2.0.0b45, Python 3.11.6, 2024-2.3-py311-tiled
# Detector.I0: 25 cm N2, NSLS2 IC
# Detector.It: 25 cm N2, NSLS2 IC
# Detector.Ir: 25 cm N2, NSLS2 IC
# Element.edge: K
# Element.symbol: Br
# Element.reference: Br
# Element.reference_material: bromophenol blue
# Facility.name: NSLS-II
# Facility.energy: 3.0
# Facility.GUP: 318519
# Facility.SAF: 316542
# Facility.cycle: 2025-2
# Facility.current: 400.6
# Facility.mode: top-off
# Mono.name: Si(111)
# Mono.d_spacing: 3.1355285
# Mono.encoder_resolution: 5e-06
# Mono.angle_offset: 16.0812487
# Mono.direction: forward
# Mono.scan_type: step
# Mono.scan_mode: pseudo channel cut
# Sample.name: ...
# Sample.prep: 2 abs. lengths in PEG pellet. Double kapton containment.
# Sample.SDD_position: 205.0
# Sample.x: 66.174
# Sample.y: 176.101
# Sample.wheel_slot: 17
# Sample.wheel_ring: outer
# Scan.edge_energy: 13473.7
# Scan.experimenters: Malin Dixon Wilkins, John Bussey, John Mccloy, Gavin Mccloy, Seonjin Kim, Maxwell Mccloy, John McCloy
# Scan.start_time: 2025-07-09T21:36:03
# Scan.end_time: 2025-07-09T21:43:58
# Scan.uid: 323dbd41-cc1f-4ddc-9f77-a1e2b87073d8
# Scan.transient_id: 32774
# Scan.plot_hint: ln(I0/It)  --  ln($5/$6)
# Column.1: energy eV
# Column.2: requested_energy eV
# Column.3: measurement_time seconds
# Column.4: xmu
# Column.5: I0 nA
# Column.6: Itrans nA
# Column.7: Irefer nA
# //////////////////////////////////////////////////////////
# ...
# ----------------------------------------------------------
# energy requested_energy measurement_time xmu I0 It Ir
13273.822279 13273.700000 0.500000 -0.511075 61.043292 36.616850 29.502780
13283.881173 13283.700000 0.500000 -0.509792 60.870115 36.559850 29.491357
13293.816650 13293.700000 0.500000 -0.508328 60.668042 36.491840 29.468954
13303.759442 13303.700000 0.500000 -0.506858 60.449103 36.413646 29.439035
13313.732761 13313.700000 0.500000 -0.505534 60.401341 36.433070 29.492177
13323.728963 13323.700000 0.500000 -0.503974 60.217782 36.379076 29.473819
13333.748116 13333.700000 0.500000 -0.502723 60.091876 36.348458 29.482962
13343.697022 13343.700000 0.500000 -0.501459 59.993528 36.334847 29.507949
13353.762147 13353.700000 0.500000 -0.500080 59.899518 36.328000 29.530690
13363.772474 13363.700000 0.500000 -0.498926 59.743290 36.275088 29.518937
13373.719910 13373.700000 0.500000 -0.497762 59.584863 36.221007 29.500789
13383.752708 13383.700000 0.500000 -0.496830 59.449430 36.172372 29.491181
13393.761581 13393.700000 0.500000 -0.495931 59.317962 36.124863 29.478407
13403.667954 13403.700000 0.500000 -0.495384 59.190549 36.066974 29.452621
13413.754110 13413.700000 0.500000 -0.495036 59.077389 36.010558 29.426002
13423.729754 13423.700000 0.500000 -0.495346 58.938094 35.914534 29.361389
13433.641625 13433.700000 0.500000 -0.496520 58.776655 35.774133 29.240601
13443.639320 13443.700000 0.500000 -0.499457 58.626717 35.578209 29.052473
13445.667501 13445.700000 0.500000 -0.500549 58.596302 35.520938 28.998799
13447.617347 13447.700000 0.500000 -0.501702 58.547112 35.450246 28.924946
13449.623049 13449.700000 0.500000 -0.503148 58.520065 35.382668 28.855353
13451.668856 13451.700000 0.500000 -0.505012 58.506287 35.308441 28.772487
13453.628365 13453.700000 0.500000 -0.507080 58.478522 35.218794 28.670182
13455.627976 13455.700000 0.500000 -0.509704 58.455425 35.112604 28.547834
13457.620280 13457.700000 0.500000 -0.513118 58.418740 34.970984 28.387120
13459.644819 13459.700000 0.500000 -0.517467 58.388576 34.801247 28.192120
13461.669974 13461.700000 0.500000 -0.523149 58.362279 34.588496 27.941037
13463.640344 13463.700000 0.500000 -0.530464 58.333478 34.319450 27.610059
13464.107305 13464.200000 0.500000 -0.532569 58.319441 34.239046 27.517978
13464.598044 13464.700000 0.500000 -0.535161 58.317158 34.149085 27.405497
13465.112568 13465.200000 0.500000 -0.537864 58.306947 34.050930 27.282299
13465.619215 13465.700000 0.500000 -0.541056 58.295963 33.936015 27.141712
13466.125901 13466.200000 0.500000 -0.544513 58.289041 33.814868 26.990852
13466.640542 13466.700000 0.500000 -0.548301 58.283950 33.684103 26.819548
13467.139387 13467.200000 0.500000 -0.552454 58.271770 33.537479 26.634123
13467.638269 13467.700000 0.500000 -0.556907 58.260356 33.381947 26.433833
13468.145108 13468.200000 0.500000 -0.562099 58.255619 33.206373 26.203003
13468.636145 13468.700000 0.500000 -0.567576 58.235569 33.013638 25.954831
13469.135139 13469.200000 0.500000 -0.573909 58.202069 32.786349 25.657212
13469.634171 13469.700000 0.500000 -0.580772 58.170139 32.544244 25.334221
13470.141162 13470.200000 0.500000 -0.589427 58.162468 32.259535 24.948107
13470.640269 13470.700000 0.500000 -0.598741 58.162444 31.960452 24.523655
13471.163183 13471.200000 0.500000 -0.610384 58.182191 31.601209 24.008554
13471.638595 13471.700000 0.500000 -0.623710 58.198205 31.191476 23.388999
13472.129890 13472.200000 0.500000 -0.640297 58.198707 30.678636 22.618970
13472.629146 13472.700000 0.500000 -0.660349 58.196472 30.068419 21.672110
13473.152216 13473.200000 0.500000 -0.687296 58.190942 29.266218 20.396425
13473.659475 13473.700000 0.500000 -0.719971 58.181899 28.320999 18.848037
13474.150918 13474.200000 0.500000 -0.763772 58.170844 27.102142 16.887080
13474.658253 13474.700000 0.500000 -0.821678 58.158570 25.571926 14.597167
13475.173555 13475.200000 0.500000 -0.896116 58.148559 23.733435 12.162675
13475.680967 13475.700000 0.500000 -1.003687 58.131776 21.306772 9.627531
13476.188418 13476.200000 0.500000 -1.126185 58.116531 18.845336 7.601318
13476.664189 13476.700000 0.500000 -1.277744 58.066311 16.181063 6.073637
13477.179646 13477.200000 0.500000 -1.441207 58.029522 13.732213 5.072986
13477.671349 13477.700000 0.500000 -1.595411 57.988751 11.761578 4.522076
13478.163089 13478.200000 0.500000 -1.738948 57.921496 10.177107 4.211970
13478.670729 13478.700000 0.500000 -1.837368 57.783153 9.201159 4.032157
13479.178408 13479.200000 0.500000 -1.903488 57.647416 8.592220 3.895261
13479.654392 13479.700000 0.500000 -1.934062 57.607111 8.327675 3.772761
13480.146278 13480.200000 0.500000 -1.941509 57.683350 8.276824 3.655063
13480.669939 13480.700000 0.500000 -1.933607 57.827319 8.363308 3.539890
13481.161900 13481.200000 0.500000 -1.916765 57.954101 8.524010 3.445664
13481.653897 13481.700000 0.500000 -1.892371 58.044191 8.748073 3.387063
13482.161803 13482.200000 0.500000 -1.861077 58.066385 9.029621 3.377390
13482.677685 13482.700000 0.500000 -1.823176 58.059240 9.377259 3.424730
13483.193607 13483.200000 0.500000 -1.785006 58.031293 9.737421 3.514999
13483.669877 13483.700000 0.500000 -1.743163 58.005694 10.149035 3.646034
13484.185876 13484.200000 0.500000 -1.703697 57.990587 10.554829 3.800421
13484.678096 13484.700000 0.500000 -1.668494 58.005851 10.935890 3.958841
13485.186233 13485.200000 0.500000 -1.635990 58.015692 11.299105 4.133879
13485.686468 13485.700000 0.500000 -1.608830 58.026981 11.612456 4.303137
13486.178799 13486.200000 0.500000 -1.588018 58.027851 11.856838 4.455456
13486.679108 13486.700000 0.500000 -1.573115 58.019706 12.033182 4.594404
13487.155628 13487.200000 0.500000 -1.566246 58.009627 12.114012 4.692488
13487.679839 13487.700000 0.500000 -1.567368 58.006609 12.099796 4.756696
13488.172318 13488.200000 0.500000 -1.576460 58.001204 11.989168 4.773318
13488.664832 13488.700000 0.500000 -1.593173 57.988691 11.787913 4.742727
13489.197107 13489.200000 0.500000 -1.616679 57.981072 11.512549 4.675201
13489.681752 13489.700000 0.500000 -1.642306 57.964766 11.218112 4.587752
13490.182324 13490.200000 0.500000 -1.670574 57.958920 10.904332 4.485348
13490.682933 13490.700000 0.500000 -1.697053 57.938964 10.615736 4.385866
13491.191528 13491.200000 0.500000 -1.721234 57.905911 10.356206 4.290603
13491.724004 13491.700000 0.500000 -1.740264 57.871482 10.154940 4.213093
13492.208832 13492.200000 0.500000 -1.754121 57.859567 10.013135 4.149139
13492.701645 13492.700000 0.500000 -1.763366 57.865675 9.922043 4.103868
13493.186545 13493.200000 0.500000 -1.767729 57.880923 9.881450 4.074932
13493.695330 13493.700000 0.500000 -1.768142 57.888505 9.878661 4.059468
13494.188252 13494.200000 0.500000 -1.765077 57.891806 9.909551 4.056883
13494.681211 13494.700000 0.500000 -1.759590 57.888276 9.963468 4.065612
13495.174207 13495.200000 0.500000 -1.751980 57.889154 10.039730 4.084233
13495.683143 13495.700000 0.500000 -1.742701 57.877481 10.131276 4.108396
13496.184166 13496.200000 0.500000 -1.733335 57.868498 10.225027 4.137099
13496.685226 13496.700000 0.500000 -1.724018 57.858677 10.318988 4.170110
13497.202232 13497.200000 0.500000 -1.715342 57.850968 10.407519 4.201469
13497.711323 13497.700000 0.500000 -1.707801 57.836423 10.483658 4.231518
13498.204543 13498.200000 0.500000 -1.700940 57.828000 10.554292 4.261943
13498.721666 13498.700000 1.000000 -1.694943 115.610833 21.227265 8.583076
13499.748077 13499.690000 1.000000 -1.685046 115.530105 21.423427 8.707473
13500.734853 13500.690000 1.000000 -1.677164 115.525002 21.591999 8.843455
13501.745653 13501.710000 1.000000 -1.670684 115.528887 21.733094 8.979785
13502.780490 13502.760000 1.000000 -1.665864 115.510891 21.834707 9.098436
13503.847335 13503.820000 1.000000 -1.663754 115.470576 21.873200 9.178140
13504.930278 13504.900000 1.000000 -1.664717 115.423885 21.843306 9.217077
13506.053220 13506.000000 1.000000 -1.668226 115.387792 21.759980 9.218753
13507.160419 13507.120000 1.000000 -1.672679 115.354321 21.657010 9.197021
13508.275768 13508.260000 1.000000 -1.676808 115.318970 21.561171 9.168583
13509.431148 13509.410000 1.000000 -1.680562 115.275176 21.472218 9.129267
13510.626579 13510.590000 1.000000 -1.684569 115.235623 21.379019 9.072055
13511.806281 13511.780000 1.000000 -1.688463 115.432395 21.332291 9.012227
13513.026056 13513.000000 1.000000 -1.692544 115.485861 21.255251 8.923725
13514.230105 13514.230000 1.000000 -1.695556 115.447882 21.184360 8.826179
13515.514131 13515.480000 1.000000 -1.696815 115.406873 21.150197 8.742498
13516.790426 13516.750000 1.000000 -1.696185 115.369156 21.156613 8.680728
13518.074944 13518.040000 1.000000 -1.693838 115.321231 21.197512 8.649471
13519.359709 13519.350000 1.000000 -1.690661 115.273580 21.256181 8.644175
13520.724543 13520.680000 1.000000 -1.686732 115.233219 21.332379 8.662227
13522.041752 13522.030000 1.000000 -1.682963 115.182556 21.403516 8.694498
13523.415120 13523.400000 1.000000 -1.679166 115.136678 21.476381 8.739849
13524.788769 13524.780000 1.000000 -1.675502 115.073233 21.543339 8.792472
13526.218622 13526.190000 1.000000 -1.671253 114.990698 21.619550 8.849395
13527.608828 13527.610000 1.000000 -1.666511 114.926368 21.710157 8.912844
13529.079246 13529.050000 1.000000 -1.661284 114.899191 21.818771 8.985639
13530.526004 13530.510000 1.000000 -1.656129 114.847870 21.921759 9.054394
13532.005059 13531.990000 1.000000 -1.651256 114.797663 22.019198 9.117393
13533.484440 13533.490000 1.000000 -1.647299 114.707934 22.089228 9.164600
13535.036142 13535.010000 1.000000 -1.644182 114.502398 22.118479 9.195530
13536.540197 13536.550000 1.000000 -1.642381 113.062450 21.879694 9.110665
13538.124620 13538.110000 1.000000 -1.641511 113.303511 21.945426 9.150120
13539.709419 13539.680000 1.000000 -1.641300 113.988188 22.082697 9.217149
13541.294592 13541.280000 1.000000 -1.641781 114.072954 22.088502 9.229514
13542.920184 13542.890000 1.000000 -1.642316 114.654201 22.189176 9.277656
13544.546172 13544.530000 1.000000 -1.643130 114.614157 22.163388 9.271274
13546.188579 13546.180000 1.000000 -1.643744 114.552989 22.137962 9.264515
13547.895507 13547.850000 1.000000 -1.644371 114.489750 22.111858 9.259609
13549.554769 13549.540000 1.000000 -1.644749 114.437488 22.093417 9.257873
13551.246517 13551.250000 1.000000 -1.644988 114.378004 22.076655 9.257869
13553.002859 13552.980000 1.000000 -1.644889 114.297994 22.063389 9.265488
13554.743615 13554.730000 1.000000 -1.644763 114.144164 22.036469 9.267220
13556.500873 13556.490000 1.000000 -1.644244 112.969793 21.821069 9.188619
13558.306755 13558.280000 1.000000 -1.644031 112.937453 21.819476 9.206310
13560.081006 13560.080000 1.000000 -1.642823 114.074537 22.065797 9.325951
13561.919979 13561.910000 1.000000 -1.641689 114.066200 22.089225 9.355619
13563.751422 13563.750000 1.000000 -1.640393 113.969327 22.099084 9.379599
13565.639617 13565.610000 1.000000 -1.638854 113.366996 22.016144 9.361816
13567.488152 13567.490000 1.000000 -1.637317 113.673937 22.109720 9.416133
13569.409561 13569.390000 1.000000 -1.635899 113.820200 22.169570 9.450748
13571.323478 13571.310000 1.000000 -1.634900 113.692425 22.166829 9.455939
13573.278165 13573.250000 1.000000 -1.633641 112.645696 21.990406 9.387975
13575.249517 13575.210000 1.000000 -1.632807 112.513219 21.982877 9.389253
13577.197299 13577.180000 1.000000 -1.631392 113.620990 22.230742 9.494965
13579.210063 13579.180000 1.000000 -1.630579 113.599055 22.244525 9.501044
13581.231485 13581.190000 1.000000 -1.629879 113.527547 22.246089 9.498383
13583.229345 13583.220000 1.000000 -1.629463 113.457135 22.241553 9.496899
13585.316453 13585.280000 1.000000 -1.628941 113.380586 22.238146 9.496672
13587.355838 13587.350000 1.000000 -1.628404 113.289904 22.232295 9.492868
13589.476487 13589.440000 1.000000 -1.627895 113.044588 22.195440 9.480417
13591.565536 13591.550000 1.000000 -1.627568 112.311103 22.058643 9.428417
13593.687514 13593.680000 1.000000 -1.626813 112.556591 22.123565 9.461259
13595.842450 13595.820000 1.000000 -1.626975 111.511208 21.914540 9.380535
13598.006151 13597.990000 1.000000 -1.626735 113.059919 22.224229 9.520939
13600.202859 13600.180000 1.000000 -1.626561 113.028913 22.221987 9.528221
13602.416444 13602.380000 1.000000 -1.626750 112.916805 22.195755 9.525149
13604.622675 13604.600000 1.000000 -1.626638 112.808017 22.176866 9.521382
13606.886228 13606.850000 1.000000 -1.626569 112.801062 22.177024 9.522459
13609.134365 13609.110000 1.000000 -1.626258 112.740055 22.171921 9.517014
13611.391345 13611.390000 1.000000 -1.625685 112.637606 22.164473 9.507008
13613.721924 13613.690000 1.000000 -1.625194 112.528665 22.153921 9.494230
13616.029020 13616.010000 1.000000 -1.624594 112.523842 22.166261 9.493104
13618.369305 13618.350000 1.000000 -1.623886 112.450497 22.167491 9.486411
13620.742810 13620.700000 1.000000 -1.623092 112.328537 22.161050 9.478534
13623.117153 13623.080000 1.000000 -1.622114 112.331849 22.183381 9.484492
13625.476116 13625.470000 1.000000 -1.621051 112.268695 22.194483 9.490701
13627.917012 13627.890000 1.000000 -1.619819 112.189652 22.206205 9.500677
13630.334452 13630.320000 1.000000 -1.618781 112.051076 22.201802 9.506717
13632.777108 13632.770000 1.000000 -1.617419 112.047530 22.231356 9.530872
13635.285606 13635.250000 1.000000 -1.616141 111.982523 22.246876 9.552771
13637.746302 13637.740000 1.000000 -1.614659 111.909988 22.265442 9.575623
13640.264774 13640.250000 1.000000 -1.613291 111.833345 22.280661 9.599108
13642.800444 13642.770000 1.000000 -1.611819 111.741537 22.295146 9.617332
13645.320804 13645.320000 1.000000 -1.610822 111.671472 22.303409 9.633746
13647.907183 13647.890000 1.000000 -1.609783 111.587557 22.309804 9.650539
13650.486416 13650.470000 1.000000 -1.608826 111.473680 22.308391 9.659892
13653.115480 13653.080000 1.000000 -1.607898 110.676886 22.169487 9.609300
13655.761857 13655.700000 1.000000 -1.607052 111.323989 22.317977 9.682438
13658.376681 13658.350000 1.000000 -1.606214 111.352936 22.342496 9.701409
13661.033271 13661.010000 1.000000 -1.605628 111.269309 22.338805 9.711292
13663.739828 13663.690000 1.000000 -1.604942 111.182673 22.336738 9.721006
13666.431156 13666.390000 1.000000 -1.604234 111.102670 22.336466 9.732029
13669.123555 13669.110000 1.000000 -1.603684 111.026680 22.333478 9.742856
13671.882336 13671.850000 1.000000 -1.602890 110.939842 22.333723 9.752687
13674.650410 13674.600000 1.000000 -1.602255 110.876182 22.335087 9.762387
13677.395105 13677.380000 1.000000 -1.601364 110.778359 22.335274 9.770028
13680.198131 13680.170000 1.000000 -1.600515 110.700137 22.338461 9.780039
13683.018673 13682.990000 1.000000 -1.599495 110.613333 22.343727 9.789536
13685.832209 13685.820000 1.000000 -1.598673 110.535817 22.346437 9.794511
13688.696019 13688.670000 1.000000 -1.597895 110.453205 22.347101 9.799733
13691.585604 13691.550000 1.000000 -1.597234 110.368731 22.344788 9.803105
13694.451848 13694.440000 1.000000 -1.596437 110.646808 22.418946 9.841699
13697.368473 13697.350000 1.000000 -1.595536 110.567867 22.423149 9.849702
13700.261759 13700.270000 1.000000 -1.594572 110.465802 22.424058 9.853013
13703.221894 13703.220000 1.000000 -1.593478 110.397240 22.434653 9.857465
13706.183321 13706.190000 1.000000 -1.592634 110.317667 22.437414 9.863365
13709.187087 13709.170000 1.000000 -1.591545 110.231401 22.444298 9.867246
13712.183971 13712.180000 1.000000 -1.590724 110.158671 22.447915 9.869705
13715.231476 13715.200000 1.000000 -1.589741 110.078448 22.453629 9.875580
13718.272130 13718.250000 1.000000 -1.588929 109.995455 22.454931 9.883821
13721.355265 13721.310000 1.000000 -1.587968 109.912928 22.459656 9.892349
13724.406892 13724.390000 1.000000 -1.587073 109.817595 22.460265 9.903129
13727.533969 13727.490000 1.000000 -1.586040 109.731594 22.465865 9.914806
13730.621313 13730.610000 1.000000 -1.585349 109.619333 22.458401 9.924539
13733.800686 13733.750000 1.000000 -1.584442 109.564323 22.467509 9.939771
13736.932091 13736.900000 1.000000 -1.583464 109.485524 22.473308 9.951304
13740.139157 13740.080000 1.000000 -1.582532 109.393017 22.475261 9.962158
13743.314736 13743.270000 1.000000 -1.581719 109.305495 22.475540 9.970422
13746.516560 13746.490000 1.000000 -1.580601 109.210566 22.481150 9.976324
13749.769441 13749.720000 1.000000 -1.579763 109.108390 22.478930 9.980336
13752.990829 13752.970000 1.000000 -1.578826 108.997559 22.477156 9.980824
13756.279871 13756.250000 1.000000 -1.577842 108.929318 22.485192 9.990240
13759.578772 13759.540000 1.000000 -1.576851 108.836446 22.488299 9.998183
13762.846178 13762.850000 1.000000 -1.575944 108.748413 22.490510 10.006695
13766.197931 13766.170000 1.000000 -1.574912 108.652298 22.493833 10.016009
13769.551334 13769.520000 1.000000 -1.573840 108.537736 22.494201 10.029353
13772.906388 13772.890000 1.000000 -1.572662 108.442338 22.500928 10.039879
13776.312836 13776.270000 1.000000 -1.571606 108.346785 22.504866 10.053252
13779.671222 13779.680000 1.000000 -1.570553 108.246515 22.507725 10.066240
13783.147441 13783.100000 1.000000 -1.569372 108.141726 22.512503 10.077904
13786.583919 13786.550000 1.000000 -1.568390 108.054074 22.516360 10.090707
13790.038744 13790.010000 1.000000 -1.567248 107.959409 22.522325 10.101974
13793.536874 13793.490000 1.000000 -1.566169 107.856675 22.525201 10.111579
13797.028483 13796.990000 1.000000 -1.564858 107.745200 22.531424 10.122939
13800.538518 13800.510000 1.000000 -1.563775 107.625208 22.530734 10.133944
13804.091978 13804.050000 1.000000 -1.562695 107.554566 22.540276 10.150032
13807.630631 13807.600000 1.000000 -1.561557 107.451719 22.544346 10.163300
13811.229447 13811.180000 1.000000 -1.560493 107.348130 22.546595 10.178067
13814.846834 13814.780000 1.000000 -1.559341 107.200635 22.541570 10.186134
13818.432769 13818.390000 1.000000 -1.558273 107.155305 22.556119 10.203562
13822.053970 13822.020000 1.000000 -1.557044 107.041268 22.559824 10.216189
13825.743893 13825.680000 1.000000 -1.555964 106.895334 22.553407 10.223559
13829.402387 13829.350000 1.000000 -1.554606 106.800432 22.563998 10.234416
13833.087916 13833.040000 1.000000 -1.553532 106.694115 22.565768 10.244732
13836.783795 13836.750000 1.000000 -1.552493 106.593838 22.567987 10.252983
13840.523512 13840.480000 1.000000 -1.551255 106.497636 22.575563 10.261891
13844.265273 13844.220000 1.000000 -1.550051 106.378579 22.577497 10.273436
13848.009078 13847.990000 1.000000 -1.548950 106.254949 22.576082 10.279529
13851.838753 13851.780000 1.000000 -1.547777 106.052302 22.559472 10.281403
13855.595085 13855.580000 1.000000 -1.546473 105.919298 22.560592 10.290438
13859.420610 13859.410000 1.000000 -1.545381 105.876467 22.576106 10.308583
13863.273458 13863.250000 1.000000 -1.544092 105.762437 22.580871 10.316942
13867.145274 13867.110000 1.000000 -1.542826 105.607551 22.576381 10.325413
13870.994058 13870.990000 1.000000 -1.541558 105.454492 22.572248 10.332899
13874.929106 13874.890000 1.000000 -1.540272 105.267319 22.561176 10.335695
13878.832750 13878.810000 1.000000 -1.539002 104.969418 22.525931 10.328310
13882.780715 13882.750000 1.000000 -1.537804 104.746026 22.504936 10.330075
13886.739375 13886.710000 1.000000 -1.536506 104.449903 22.470461 10.325509
13890.708746 13890.680000 1.000000 -1.535139 104.127023 22.431644 10.317607
13894.705715 13894.680000 1.000000 -1.533929 103.801821 22.388650 10.308275
13898.738768 13898.690000 1.000000 -1.532660 103.808501 22.418530 10.334700
13902.757298 13902.730000 1.000000 -1.531446 103.691132 22.420391 10.348425
13906.795076 13906.780000 1.000000 -1.530093 103.738463 22.460984 10.378420
13910.953590 13910.850000 1.000000 -1.528731 103.592827 22.460034 10.388642
13914.920042 13914.940000 1.000000 -1.527684 103.471137 22.457140 10.400652
13919.007285 13919.050000 1.000000 -1.526253 103.251005 22.441462 10.401812
13923.181653 13923.180000 1.000000 -1.524982 103.198649 22.458612 10.422040
13927.307701 13927.330000 1.000000 -1.523607 103.134280 22.475472 10.440381
13931.470140 13931.490000 1.000000 -1.522317 103.090074 22.494851 10.458878
13935.669035 13935.680000 1.000000 -1.521104 102.999390 22.502342 10.476952
13939.845016 13939.880000 1.000000 -1.519738 102.877950 22.506518 10.488024
13944.099986 13944.110000 1.000000 -1.518454 102.738253 22.504846 10.499439
13948.323579 13948.350000 1.000000 -1.517137 102.630503 22.510871 10.512842
13952.592286 13952.610000 1.000000 -1.515852 102.486274 22.508144 10.524781
13956.923214 13956.890000 1.000000 -1.514436 102.313824 22.502093 10.533176
13961.205758 13961.190000 1.000000 -1.513284 102.109585 22.483065 10.536337
13965.550612 13965.510000 1.000000 -1.511840 101.662975 22.417084 10.515382
13969.915254 13969.850000 1.000000 -1.510677 94.846878 20.938450 9.829088
13974.257054 13974.210000 1.000000 -1.509132 102.260872 22.610065 10.626444
13978.686964 13978.590000 1.000000 -1.507706 102.125917 22.612439 10.637132
13983.000100 13982.980000 1.000000 -1.506428 101.961781 22.604982 10.647196
13987.452710 13987.400000 1.000000 -1.505261 101.815492 22.598900 10.654864
13991.856858 13991.830000 1.000000 -1.503734 101.674875 22.602180 10.669604
13996.332288 13996.280000 1.000000 -1.502460 101.777637 22.653861 10.706060
14000.784915 14000.750000 1.000000 -1.501029 101.651407 22.658175 10.720282
14005.257547 14005.240000 1.000000 -1.499653 101.527090 22.661617 10.733655
14009.758796 14009.750000 1.000000 -1.498226 101.406745 22.667072 10.746639
14014.305879 14014.280000 1.000000 -1.496911 101.277370 22.667938 10.762384
14018.847358 14018.830000 1.000000 -1.495418 101.143430 22.671793 10.772474
14023.408997 14023.400000 1.000000 -1.494206 100.995592 22.666110 10.781308
14028.042430 14027.980000 1.000000 -1.492756 100.863139 22.669225 10.791328
14032.627327 14032.590000 1.000000 -1.491310 100.743274 22.675063 10.806296
14037.241085 14037.210000 1.000000 -1.490044 100.629649 22.678167 10.818895
14041.909606 14041.860000 1.000000 -1.488573 100.501797 22.682703 10.831746
14046.546776 14046.520000 1.000000 -1.487140 100.401614 22.692578 10.849252
14051.212925 14051.200000 1.000000 -1.485869 100.272957 22.692340 10.861405
14055.951276 14055.900000 1.000000 -1.484444 100.129988 22.692294 10.875099
14060.641019 14060.620000 1.000000 -1.483132 99.967776 22.685263 10.883441
14065.385796 14065.360000 1.000000 -1.481613 99.826277 22.687609 10.897195
14070.168415 14070.110000 1.000000 -1.480132 99.485092 22.643571 10.885366
14074.928349 14074.890000 1.000000 -1.478940 92.949152 21.181169 10.191765
14079.734852 14079.690000 1.000000 -1.477307 99.402403 22.688761 10.932302
14084.544673 14084.500000 1.000000 -1.475889 99.395702 22.719418 10.958958
14089.349139 14089.330000 1.000000 -1.474495 99.294768 22.728010 10.975919
14094.243730 14094.190000 1.000000 -1.473110 99.139717 22.723967 10.986628
14099.098320 14099.060000 1.000000 -1.471720 98.942740 22.710365 10.994579
14103.964983 14103.950000 1.000000 -1.470282 98.794891 22.709062 11.003325
14108.913336 14108.860000 1.000000 -1.468872 98.336090 22.635498 10.982525
14113.812963 14113.790000 1.000000 -1.467383 98.307046 22.662530 11.007949
14118.785724 14118.730000 1.000000 -1.465664 93.137439 21.507725 10.459213
14123.744588 14123.700000 1.000000 -1.464549 98.604262 22.795564 11.097699
14128.741870 14128.690000 1.000000 -1.463033 98.349185 22.771072 11.100164
14133.716533 14133.690000 1.000000 -1.461694 98.192492 22.765267 11.111188
14138.755892 14138.720000 1.000000 -1.460173 98.077950 22.773329 11.126686
14143.798883 14143.760000 1.000000 -1.458807 97.955845 22.776045 11.139436
14148.863007 14148.820000 1.000000 -1.457390 97.806764 22.773631 11.153710
14153.974574 14153.900000 1.000000 -1.455991 97.601746 22.757726 11.158744
14159.046061 14159.000000 1.000000 -1.454541 97.178561 22.691919 11.138316
14164.165064 14164.120000 1.000000 -1.453431 90.886476 21.246239 10.439995
14169.331681 14169.260000 1.000000 -1.451588 97.219367 22.768588 11.200913
14174.449416 14174.420000 1.000000 -1.450336 97.163490 22.784015 11.223038
14179.667555 14179.600000 1.000000 -1.448734 96.990741 22.779968 11.232087
14184.845602 14184.790000 1.000000 -1.447176 96.893932 22.792717 11.247724
14190.053873 14190.010000 1.000000 -1.445778 96.737292 22.787703 11.260282
14195.318853 14195.240000 1.000000 -1.444286 96.602630 22.789964 11.273895
14200.552524 14200.490000 1.000000 -1.442880 96.460280 22.788399 11.287085
14205.834197 14205.760000 1.000000 -1.441433 96.314967 22.787007 11.299032
14211.137494 14211.050000 1.000000 -1.439853 96.174265 22.789700 11.314730
14216.382954 14216.360000 1.000000 -1.438396 96.055630 22.794776 11.329021
